File: code/baseline_comparison/tabbie/data/discomat_data/discomat_all_csv/S0022309305007040__2.csv
Specimen,TiO2 addition (wt%),Density (g/cm3),Longitudinal modulus (GPa),Elastic modulus (GPa),Bulk modulus (GPa),Shear modulus (GPa)
Parent glass,No,2.520,85.79,79.23,40.93,33.64
Glass ceramic,No,2.606,89.23,72.12,51.23,30.88
As-prepared glass,1,2.528,93.07,75.92,52.92,30.11
Glass ceramic,1,2.619,85.78,76.43,43.55,31.67
As-prepared glass,2,2.537,89.95,74.16,50.57,29.54
Glass ceramic,2,2.629,83.99,69.89,46.73,27.95