File: code/baseline_comparison/tabbie/data/discomat_data/discomat_all_csv/S0022309314006644__3.csv
Glass codes,Composition (mol%),Composition (mol%),Composition (mol%),Composition (mol%),O/P Ratio (+-0.01),r (gcm-3) (+-0.1),Vm (cm3 mol-1) (+-0.1),Hardness (Hv) (+-0.1)
Glass codes,P2O5,ZnO,Sm2O3,NiO,O/P Ratio (+-0.01),r (gcm-3) (+-0.1),Vm (cm3 mol-1) (+-0.1),Hardness (Hv) (+-0.1)
ZPSN0.0,59.0,40.0,1.0,0.0,2.86,2.8,42.2,173.2
ZPSN0.5,58.5,40.0,1.0,0.5,2.87,2.9,41.3,273.1
ZPSN1.0,58.0,40.0,1.0,1.0,2.88,2.9,41.4,364.8
ZPSN1.5,57.5,40.0,1.0,1.5,2.89,2.9,41.1,439.9
ZPSN2.0,56.0,40.0,1.0,2.0,2.90,3.0,40.6,465.1