File: code/baseline_comparison/tabbie/data/discomat_data/discomat_train_csv/S002230930200950X__2.csv
Sample,Heat treatment temperature (degC)/time (h),r (g/cm3),m,G (GPa),E (GPa),Vickers hardness (GPa),K Ic (MPam1/2),Crystalline phases observed
G,-,2.632,0.26,40.9,103,6.7+-0.1,1.5+-0.3,-
GC1,800/3,2.645,0.26,41.6,105,6.9+-0.1,1.5+-0.1,QSS
GC2,800/2-1050/3,2.712,0.23,46.7,114,8.4+-0.2,2.1+-0.3,"HQSS, MAT, MAS"
GC3,800/2-1080/3,2.957,0.19,58.1,139,9.5+-0.2,4.3+-0.6,"MAT, MAS, LQSS"
GC4,800/2-1200/3,2.630,0.21,47.8,116,7.9+-0.5,2.0+-0.3,"AT, Cordierite, Cristobalite, Rutile"