File: code/baseline_comparison/tabbie/data/discomat_data/discomat_train_csv/S0022309304007616__0.csv
Composition (mol%),Composition (mol%),Melting conditions,Melting conditions,Density (g/cc),Young's Modulus (GPa),e f(%) at 4000mm/s,e f(%) at 50mm/s,s f
Na2O,SiO2,Temperature (degC),Time (h),,,,,
0,100,-,-,2.2153+-0.0012,71.99+-0.65,17.73+-0.16,17.57+-0.18,12.77
7,93,1600,20.00,2.2576+-0.0008,63.97+-0.27,15.67+-0.09,15.46+-0.07,10.02
10,90,1550,14.00,2.2847+-0.0008,62.11+-0.28,16.04+-0.05,16.01+-0.05,9.96
15,85,1550,7.00,2.3352+-0.0004,59.06+-0.27,17.60+-0.06,17.91+-0.09,10.39
20,80,1500,6.00,2.3830+-0.0014,57.49+-0.44,19.19+-0.09,19.86+-0.10,11.03
25,75,1300,6.30,2.4299+-0.0007,56.18+-0.33,20.85+-0.12,21.99+-0.10,11.71
30,70,1300,6.30,2.4693+-0.0019,55.94+-0.29,22.48+-0.13,24.19+-0.13,12.57
35,65,1200,8.00,2.4964+-0.0018,55.71+-0.23,23.49+-0.14,25.76+-0.17,13.08